
Filename:
	C:\XRD Data\Shane\Emily\Emily_XRD_09_30_2015_1.raw

File ID:
	ECK008-POSTANNEAL

File Created:
	September 30, 2015 - 09:55 AM

Comment:
	(Mn_1.05 Ni_0.95 Si)_1-x (FeCoGe)_x

x=0.4

post-anneal

Scan Type: Normal
Start Angle: 5 deg.
Stop Angle: 90 deg.
Num Points: 4251
Step Size: 0.02 deg.
Datafile Res: 1600 
Scan Rate: 0.040000
Scan Mode: Step
Wavelength: 1.540562

Diffractometer Optics:
		Detector:
			 Type: Fixed Slits
			 Offset: 0.000000
		Tube: 
			 Type: Fixed Slits


Axis[0]
	 Selected   : no 
	 Iterative  : no 
	 Start Angle: 0.000000 
	 Stop Angle : 0.000000 
	 Step Size  : 0.000000 
	 Oscillating: no 

Axis[1]
	 Selected   : no 
	 Iterative  : no 
	 Start Angle: 0.000000 
	 Stop Angle : 0.000000 
	 Step Size  : 0.000000 
	 Oscillating: no 

Axis[2]
	 Selected   : no 
	 Iterative  : no 
	 Start Angle: 0.000000 
	 Stop Angle : 0.000000 
	 Step Size  : 0.000000 
	 Oscillating: no 

Axis[3]
	 Selected   : no 
	 Iterative  : no 
	 Start Angle: 0.000000 
	 Stop Angle : 0.000000 
	 Step Size  : 0.000000 
	 Oscillating: no 

Axis[4]
	 Selected   : no 
	 Iterative  : no 
	 Start Angle: 0.000000 
	 Stop Angle : 0.000000 
	 Step Size  : 0.000000 
	 Oscillating: no 

Axis[5]
	 Selected   : no 
	 Iterative  : no 
	 Start Angle: 0.000000 
	 Stop Angle : 0.000000 
	 Step Size  : 0.000000 
	 Oscillating: no 

Axis[6]
	 Selected   : no 
	 Iterative  : no 
	 Start Angle: 0.000000 
	 Stop Angle : 0.000000 
	 Step Size  : 0.000000 
	 Oscillating: no 

Axis[7]
	 Selected   : no 
	 Iterative  : no 
	 Start Angle: 0.000000 
	 Stop Angle : 0.000000 
	 Step Size  : 0.000000 
	 Oscillating: no 

Axis[8]
	 Selected   : no 
	 Iterative  : no 
	 Start Angle: 0.000000 
	 Stop Angle : 0.000000 
	 Step Size  : 0.000000 
	 Oscillating: no 

Axis[9]
	 Selected   : no 
	 Iterative  : no 
	 Start Angle: 0.000000 
	 Stop Angle : 0.000000 
	 Step Size  : 0.000000 
	 Oscillating: no 




    Deg.           CPS         ESD

Range 0
   5.000        176.00        18.762
   5.020        174.00        18.655
   5.040        192.00        19.596
   5.060        218.00        20.881
   5.080        168.00        18.330
   5.100        190.00        19.494
   5.120        182.00        19.079
   5.140        188.00        19.391
   5.160        206.00        20.298
   5.180        164.00        18.111
   5.200        144.00        16.971
   5.220        164.00        18.111
   5.240        152.00        17.436
   5.260        120.00        15.492
   5.280        190.00        19.494
   5.300        126.00        15.875
   5.320        150.00        17.321
   5.340        178.00        18.868
   5.360        152.00        17.436
   5.380        158.00        17.776
   5.400        120.00        15.492
   5.420        134.00        16.371
   5.440        166.00        18.221
   5.460        148.00        17.205
   5.480        158.00        17.776
   5.500        178.00        18.868
   5.520        148.00        17.205
   5.540        170.00        18.439
   5.560        128.00        16.000
   5.580        140.00        16.733
   5.600        142.00        16.852
   5.620        150.00        17.321
   5.640        158.00        17.776
   5.660        222.00        21.071
   5.680        138.00        16.613
   5.700        162.00        18.000
   5.720        106.00        14.560
   5.740        158.00        17.776
   5.760        134.00        16.371
   5.780        134.00        16.371
   5.800        120.00        15.492
   5.820        168.00        18.330
   5.840        118.00        15.362
   5.860        124.00        15.748
   5.880        132.00        16.248
   5.900        174.00        18.655
   5.920        124.00        15.748
   5.940        120.00        15.492
   5.960        152.00        17.436
   5.980        188.00        19.391
   6.000        144.00        16.971
   6.020        100.00        14.142
   6.040        126.00        15.875
   6.060        156.00        17.664
   6.080        126.00        15.875
   6.100        116.00        15.232
   6.120        138.00        16.613
   6.140        146.00        17.088
   6.160         98.00        14.000
   6.180        148.00        17.205
   6.200        154.00        17.550
   6.220        170.00        18.439
   6.240        136.00        16.492
   6.260        156.00        17.664
   6.280        144.00        16.971
   6.300        128.00        16.000
   6.320        134.00        16.371
   6.340        112.00        14.967
   6.360        168.00        18.330
   6.380        102.00        14.283
   6.400        142.00        16.852
   6.420         94.00        13.711
   6.440        100.00        14.142
   6.460        110.00        14.832
   6.480        118.00        15.362
   6.500        172.00        18.547
   6.520        116.00        15.232
   6.540        118.00        15.362
   6.560        124.00        15.748
   6.580        112.00        14.967
   6.600        114.00        15.100
   6.620        138.00        16.613
   6.640         92.00        13.565
   6.660        110.00        14.832
   6.680        120.00        15.492
   6.700         92.00        13.565
   6.720        120.00        15.492
   6.740        124.00        15.748
   6.760         98.00        14.000
   6.780        108.00        14.697
   6.800         94.00        13.711
   6.820        116.00        15.232
   6.840        122.00        15.620
   6.860         80.00        12.649
   6.880         98.00        14.000
   6.900         90.00        13.416
   6.920        122.00        15.620
   6.940        116.00        15.232
   6.960        112.00        14.967
   6.980        104.00        14.422
   7.000         88.00        13.266
   7.020        102.00        14.283
   7.040        102.00        14.283
   7.060        108.00        14.697
   7.080         96.00        13.856
   7.100        146.00        17.088
   7.120        128.00        16.000
   7.140        108.00        14.697
   7.160         98.00        14.000
   7.180        112.00        14.967
   7.200        116.00        15.232
   7.220        156.00        17.664
   7.240         86.00        13.115
   7.260         98.00        14.000
   7.280        120.00        15.492
   7.300        116.00        15.232
   7.320        118.00        15.362
   7.340         68.00        11.662
   7.360         88.00        13.266
   7.380        114.00        15.100
   7.400        100.00        14.142
   7.420         64.00        11.314
   7.440         96.00        13.856
   7.460        110.00        14.832
   7.480        122.00        15.620
   7.500         94.00        13.711
   7.520         98.00        14.000
   7.540        100.00        14.142
   7.560        114.00        15.100
   7.580        118.00        15.362
   7.600        112.00        14.967
   7.620        126.00        15.875
   7.640        128.00        16.000
   7.660         94.00        13.711
   7.680        112.00        14.967
   7.700         70.00        11.832
   7.720         72.00        12.000
   7.740         70.00        11.832
   7.760         94.00        13.711
   7.780        134.00        16.371
   7.800        116.00        15.232
   7.820        104.00        14.422
   7.840         64.00        11.314
   7.860        112.00        14.967
   7.880        110.00        14.832
   7.900        124.00        15.748
   7.920         90.00        13.416
   7.940         88.00        13.266
   7.960         90.00        13.416
   7.980         96.00        13.856
   8.000         88.00        13.266
   8.020        106.00        14.560
   8.040         92.00        13.565
   8.060         80.00        12.649
   8.080         70.00        11.832
   8.100         98.00        14.000
   8.120        100.00        14.142
   8.140        132.00        16.248
   8.160         94.00        13.711
   8.180        104.00        14.422
   8.200         80.00        12.649
   8.220        104.00        14.422
   8.240         88.00        13.266
   8.260         74.00        12.166
   8.280         94.00        13.711
   8.300        110.00        14.832
   8.320         78.00        12.490
   8.340         90.00        13.416
   8.360        116.00        15.232
   8.380         94.00        13.711
   8.400         84.00        12.961
   8.420         78.00        12.490
   8.440        106.00        14.560
   8.460         86.00        13.115
   8.480         82.00        12.806
   8.500         98.00        14.000
   8.520         78.00        12.490
   8.540        120.00        15.492
   8.560         72.00        12.000
   8.580         82.00        12.806
   8.600         92.00        13.565
   8.620         58.00        10.770
   8.640         90.00        13.416
   8.660         60.00        10.954
   8.680         62.00        11.136
   8.700        100.00        14.142
   8.720        100.00        14.142
   8.740         96.00        13.856
   8.760         80.00        12.649
   8.780         66.00        11.489
   8.800         66.00        11.489
   8.820        104.00        14.422
   8.840        108.00        14.697
   8.860         96.00        13.856
   8.880         76.00        12.329
   8.900         84.00        12.961
   8.920         62.00        11.136
   8.940        106.00        14.560
   8.960         88.00        13.266
   8.980         94.00        13.711
   9.000        102.00        14.283
   9.020         82.00        12.806
   9.040         70.00        11.832
   9.060         70.00        11.832
   9.080         84.00        12.961
   9.100         64.00        11.314
   9.120         82.00        12.806
   9.140         90.00        13.416
   9.160         96.00        13.856
   9.180         82.00        12.806
   9.200         60.00        10.954
   9.220         86.00        13.115
   9.240         78.00        12.490
   9.260         74.00        12.166
   9.280         62.00        11.136
   9.300         88.00        13.266
   9.320         74.00        12.166
   9.340        100.00        14.142
   9.360         78.00        12.490
   9.380        114.00        15.100
   9.400         82.00        12.806
   9.420         86.00        13.115
   9.440         82.00        12.806
   9.460        100.00        14.142
   9.480         82.00        12.806
   9.500        108.00        14.697
   9.520         74.00        12.166
   9.540         68.00        11.662
   9.560         80.00        12.649
   9.580         84.00        12.961
   9.600         80.00        12.649
   9.620         52.00        10.198
   9.640         78.00        12.490
   9.660         60.00        10.954
   9.680         74.00        12.166
   9.700         36.00         8.485
   9.720         70.00        11.832
   9.740         58.00        10.770
   9.760         60.00        10.954
   9.780         94.00        13.711
   9.800         58.00        10.770
   9.820        120.00        15.492
   9.840         76.00        12.329
   9.860         94.00        13.711
   9.880         70.00        11.832
   9.900         88.00        13.266
   9.920         72.00        12.000
   9.940         80.00        12.649
   9.960         64.00        11.314
   9.980         80.00        12.649
  10.000         74.00        12.166
  10.020        138.00        16.613
  10.040         94.00        13.711
  10.060         46.00         9.592
  10.080        122.00        15.620
  10.100         54.00        10.392
  10.120         70.00        11.832
  10.140         96.00        13.856
  10.160         84.00        12.961
  10.180         96.00        13.856
  10.200         68.00        11.662
  10.220         76.00        12.329
  10.240         96.00        13.856
  10.260         64.00        11.314
  10.280         90.00        13.416
  10.300         88.00        13.266
  10.320         68.00        11.662
  10.340         68.00        11.662
  10.360         76.00        12.329
  10.380         64.00        11.314
  10.400         88.00        13.266
  10.420         60.00        10.954
  10.440         84.00        12.961
  10.460         70.00        11.832
  10.480         82.00        12.806
  10.500         56.00        10.583
  10.520         66.00        11.489
  10.540         60.00        10.954
  10.560         50.00        10.000
  10.580         58.00        10.770
  10.600         60.00        10.954
  10.620         94.00        13.711
  10.640         72.00        12.000
  10.660         62.00        11.136
  10.680         52.00        10.198
  10.700         26.00         7.211
  10.720         88.00        13.266
  10.740         70.00        11.832
  10.760         86.00        13.115
  10.780         48.00         9.798
  10.800         50.00        10.000
  10.820         68.00        11.662
  10.840         80.00        12.649
  10.860         58.00        10.770
  10.880         64.00        11.314
  10.900         78.00        12.490
  10.920         44.00         9.381
  10.940         52.00        10.198
  10.960         62.00        11.136
  10.980         62.00        11.136
  11.000         48.00         9.798
  11.020         92.00        13.565
  11.040         72.00        12.000
  11.060         68.00        11.662
  11.080         96.00        13.856
  11.100         88.00        13.266
  11.120         72.00        12.000
  11.140         88.00        13.266
  11.160         64.00        11.314
  11.180         54.00        10.392
  11.200         50.00        10.000
  11.220         48.00         9.798
  11.240         62.00        11.136
  11.260         54.00        10.392
  11.280         46.00         9.592
  11.300         82.00        12.806
  11.320         74.00        12.166
  11.340         56.00        10.583
  11.360         54.00        10.392
  11.380         78.00        12.490
  11.400         70.00        11.832
  11.420         66.00        11.489
  11.440         88.00        13.266
  11.460         46.00         9.592
  11.480         64.00        11.314
  11.500         56.00        10.583
  11.520         62.00        11.136
  11.540         80.00        12.649
  11.560         64.00        11.314
  11.580         68.00        11.662
  11.600         86.00        13.115
  11.620         80.00        12.649
  11.640         68.00        11.662
  11.660         52.00        10.198
  11.680         48.00         9.798
  11.700        100.00        14.142
  11.720         70.00        11.832
  11.740         30.00         7.746
  11.760         94.00        13.711
  11.780         70.00        11.832
  11.800         50.00        10.000
  11.820         58.00        10.770
  11.840         62.00        11.136
  11.860         80.00        12.649
  11.880         66.00        11.489
  11.900         44.00         9.381
  11.920         78.00        12.490
  11.940         64.00        11.314
  11.960         66.00        11.489
  11.980        124.00        15.748
  12.000         56.00        10.583
  12.020         74.00        12.166
  12.040         74.00        12.166
  12.060         82.00        12.806
  12.080         74.00        12.166
  12.100         82.00        12.806
  12.120         68.00        11.662
  12.140         86.00        13.115
  12.160         74.00        12.166
  12.180         84.00        12.961
  12.200         70.00        11.832
  12.220         82.00        12.806
  12.240         64.00        11.314
  12.260         92.00        13.565
  12.280         78.00        12.490
  12.300         84.00        12.961
  12.320         76.00        12.329
  12.340         64.00        11.314
  12.360         52.00        10.198
  12.380         52.00        10.198
  12.400         66.00        11.489
  12.420         68.00        11.662
  12.440         54.00        10.392
  12.460         70.00        11.832
  12.480         62.00        11.136
  12.500         60.00        10.954
  12.520         72.00        12.000
  12.540         48.00         9.798
  12.560         42.00         9.165
  12.580         46.00         9.592
  12.600         62.00        11.136
  12.620         60.00        10.954
  12.640         74.00        12.166
  12.660         72.00        12.000
  12.680         74.00        12.166
  12.700         90.00        13.416
  12.720         56.00        10.583
  12.740         86.00        13.115
  12.760         50.00        10.000
  12.780         86.00        13.115
  12.800         56.00        10.583
  12.820         46.00         9.592
  12.840         58.00        10.770
  12.860         82.00        12.806
  12.880         82.00        12.806
  12.900         50.00        10.000
  12.920         66.00        11.489
  12.940         46.00         9.592
  12.960         48.00         9.798
  12.980         44.00         9.381
  13.000         66.00        11.489
  13.020         52.00        10.198
  13.040         72.00        12.000
  13.060         36.00         8.485
  13.080         68.00        11.662
  13.100         64.00        11.314
  13.120         70.00        11.832
  13.140         60.00        10.954
  13.160         86.00        13.115
  13.180         44.00         9.381
  13.200         72.00        12.000
  13.220         60.00        10.954
  13.240         34.00         8.246
  13.260         68.00        11.662
  13.280         44.00         9.381
  13.300         42.00         9.165
  13.320         58.00        10.770
  13.340         48.00         9.798
  13.360         56.00        10.583
  13.380         80.00        12.649
  13.400         42.00         9.165
  13.420         42.00         9.165
  13.440         44.00         9.381
  13.460         40.00         8.944
  13.480         58.00        10.770
  13.500         44.00         9.381
  13.520         78.00        12.490
  13.540         72.00        12.000
  13.560         48.00         9.798
  13.580         64.00        11.314
  13.600         60.00        10.954
  13.620         56.00        10.583
  13.640         80.00        12.649
  13.660        102.00        14.283
  13.680         80.00        12.649
  13.700         66.00        11.489
  13.720         54.00        10.392
  13.740         56.00        10.583
  13.760         52.00        10.198
  13.780         64.00        11.314
  13.800         50.00        10.000
  13.820         76.00        12.329
  13.840         62.00        11.136
  13.860         74.00        12.166
  13.880         70.00        11.832
  13.900         74.00        12.166
  13.920         42.00         9.165
  13.940         54.00        10.392
  13.960         64.00        11.314
  13.980         72.00        12.000
  14.000         70.00        11.832
  14.020         78.00        12.490
  14.040         58.00        10.770
  14.060         58.00        10.770
  14.080         68.00        11.662
  14.100         60.00        10.954
  14.120         74.00        12.166
  14.140         58.00        10.770
  14.160         62.00        11.136
  14.180         64.00        11.314
  14.200         42.00         9.165
  14.220         36.00         8.485
  14.240         34.00         8.246
  14.260         58.00        10.770
  14.280         54.00        10.392
  14.300         60.00        10.954
  14.320         48.00         9.798
  14.340         90.00        13.416
  14.360         72.00        12.000
  14.380         48.00         9.798
  14.400         52.00        10.198
